     time/ms     Ampl/pA
     -1.4000      0.0226
     -1.3750      0.0241
     -1.3500      0.0165
     -1.3250      0.0074
     -1.3000      0.0012
     -1.2750     -0.0033
     -1.2500     -0.0110
     -1.2250     -0.0155
     -1.2000     -0.0232
     -1.1750     -0.0216
     -1.1500      0.0028
     -1.1250      0.1447
     -1.1000      0.4285
     -1.0750      0.7779
     -1.0500      1.1121
     -1.0250      1.4340
     -1.0000      1.7255
     -0.9750      1.9956
     -0.9500      2.2595
     -0.9250      2.5113
     -0.9000      2.7539
     -0.8750      3.0042
     -0.8500      3.2453
     -0.8250      3.4787
     -0.8000      3.7046
     -0.7750      3.9319
     -0.7500      4.1654
     -0.7250      4.3882
     -0.7000      4.6186
     -0.6750      4.8337
     -0.6500      5.0534
     -0.6250      5.2732
     -0.6000      5.4807
     -0.5750      5.6928
     -0.5500      5.9064
     -0.5250      6.1246
     -0.5000      6.3474
     -0.4750      6.5747
     -0.4500      6.8067
     -0.4250      7.0401
     -0.4000      7.2858
     -0.3750      7.5528
     -0.3500      7.8351
     -0.3250      8.1601
     -0.3000      8.5157
     -0.2750      8.9521
     -0.2500      9.5182
     -0.2250     10.3070
     -0.2000     11.4835
     -0.1750     13.3939
     -0.1500     16.1969
     -0.1250     19.4745
     -0.1000     22.4515
     -0.0750     24.6274
     -0.0500     25.9610
     -0.0250     26.6522
      0.0000     26.9147
      0.0250     26.9132
      0.0500     26.7270
      0.0750     26.4142
      0.1000     26.0053
      0.1250     25.5445
      0.1500     25.0333
      0.1750     24.4855
      0.2000     23.9026
      0.2250     23.3014
      0.2500     22.6987
      0.2750     22.1112
      0.3000     21.5345
      0.3250     20.9867
      0.3500     20.4496
      0.3750     19.9292
      0.4000     19.4211
      0.4250     18.9237
      0.4500     18.4217
      0.4750     17.9319
      0.5000     17.4436
      0.5250     16.9705
      0.5500     16.4960
      0.5750     16.0215
      0.6000     15.5362
      0.6250     15.0418
      0.6500     14.5368
      0.6750     14.0180
      0.7000     13.4946
      0.7250     12.9697
      0.7500     12.4265
      0.7750     11.8894
      0.8000     11.3507
      0.8250     10.8029
      0.8500     10.2536
      0.8750      9.7058
      0.9000      9.1657
      0.9250      8.6240
      0.9500      8.1067
      0.9750      7.5940
      1.0000      7.1012
      1.0250      6.6358
      1.0500      6.1948
      1.0750      5.7935
      1.1000      5.4135
      1.1250      5.0611
      1.1500      4.7345
      1.1750      4.4248
      1.2000      4.1303
      1.2250      3.8556
      1.2500      3.6038
      1.2750      3.3658
      1.3000      3.1369
      1.3250      2.9279
      1.3500      2.7341
      1.3750      2.5647
      1.4000      2.3999
      1.4250      2.2458
      1.4500      2.0978
      1.4750      1.9620
      1.5000      1.8338
      1.5250      1.7026
      1.5500      1.5836
      1.5750      1.4814
      1.6000      1.3806
      1.6250      1.2937
      1.6500      1.1945
      1.6750      1.1090
      1.7000      1.0358
      1.7250      0.9595
      1.7500      0.8908
      1.7750      0.8252
      1.8000      0.7657
      1.8250      0.7062
      1.8500      0.6406
      1.8750      0.5872
      1.9000      0.5292
      1.9250      0.4834
      1.9500      0.4331
      1.9750      0.3873
      2.0000      0.3491
      2.0250      0.3202
      2.0500      0.2927
      2.0750      0.2683
      2.1000      0.2347
      2.1250      0.2179
      2.1500      0.1950
      2.1750      0.1706
      2.2000      0.1432
      2.2250      0.1172
      2.2500      0.0897
      2.2750      0.0669
      2.3000      0.0455
      2.3250      0.0211
      2.3500      0.0028
      2.3750     -0.0094
      2.4000     -0.0277
      2.4250     -0.0445
      2.4500     -0.0506
      2.4750     -0.0552
      2.5000     -0.0659
      2.5250     -0.0735
      2.5500     -0.0781
      2.5750     -0.0918
      2.6000     -0.1010
      2.6250     -0.1147
      2.6500     -0.1239
      2.6750     -0.1269
      2.7000     -0.1376
      2.7250     -0.1376
      2.7500     -0.1483
      2.7750     -0.1574
      2.8000     -0.1727
      2.8250     -0.1788
      2.8500     -0.1864
      2.8750     -0.1910
      2.9000     -0.1910
      2.9250     -0.1910
      2.9500     -0.1971
      2.9750     -0.1956
      3.0000     -0.2032
      3.0250     -0.2047
      3.0500     -0.2093
      3.0750     -0.2124
      3.1000     -0.2124
      3.1250     -0.2170
      3.1500     -0.2307
      3.1750     -0.2261
      3.2000     -0.2292
      3.2250     -0.2261
      3.2500     -0.2322
      3.2750     -0.2353
      3.3000     -0.2368
      3.3250     -0.2429
      3.3500     -0.2475
      3.3750     -0.2505
      3.4000     -0.2566
      3.4250     -0.2566
      3.4500     -0.2566
      3.4750     -0.2505
      3.5000     -0.2505
      3.5250     -0.2597
      3.5500     -0.2643
      3.5750     -0.2597
