     time/ms     Ampl/pA
     -1.3500      0.0052
     -1.3250      0.0067
     -1.3000      0.0006
     -1.2750     -0.0024
     -1.2500     -0.0055
     -1.2250     -0.0116
     -1.2000     -0.0070
     -1.1750     -0.0009
     -1.1500     -0.0085
     -1.1250     -0.0039
     -1.1000     -0.0039
     -1.0750      0.0312
     -1.0500      0.2097
     -1.0250      0.5286
     -1.0000      0.8841
     -0.9750      1.2152
     -0.9500      1.5311
     -0.9250      1.8225
     -0.9000      2.0972
     -0.8750      2.3734
     -0.8500      2.6297
     -0.8250      2.8800
     -0.8000      3.1409
     -0.7750      3.3881
     -0.7500      3.6338
     -0.7250      3.8687
     -0.7000      4.1068
     -0.6750      4.3418
     -0.6500      4.5828
     -0.6250      4.8148
     -0.6000      5.0315
     -0.5750      5.2634
     -0.5500      5.4923
     -0.5250      5.7135
     -0.5000      5.9378
     -0.4750      6.1606
     -0.4500      6.3956
     -0.4250      6.6535
     -0.4000      6.9159
     -0.3750      7.2104
     -0.3500      7.5156
     -0.3250      7.8452
     -0.3000      8.1916
     -0.2750      8.5868
     -0.2500      9.0598
     -0.2250      9.7037
     -0.2000     10.6604
     -0.1750     12.3023
     -0.1500     15.2365
     -0.1250     19.3000
     -0.1000     23.3267
     -0.0750     26.2458
     -0.0500     27.8464
     -0.0250     28.4629
      0.0000     28.4827
      0.0250     28.1195
      0.0500     27.4542
      0.0750     26.5265
      0.1000     25.4035
      0.1250     24.1309
      0.1500     22.7774
      0.1750     21.3858
      0.2000     20.0064
      0.2250     18.6835
      0.2500     17.4185
      0.2750     16.2268
      0.3000     15.0672
      0.3250     13.9411
      0.3500     12.8256
      0.3750     11.6934
      0.4000     10.5643
      0.4250      9.4458
      0.4500      8.3686
      0.4750      7.3493
      0.5000      6.3895
      0.5250      5.5136
      0.5500      4.7217
      0.5750      4.0167
      0.6000      3.3850
      0.6250      2.8250
      0.6500      2.3322
      0.6750      1.8958
      0.7000      1.5113
      0.7250      1.1710
      0.7500      0.8567
      0.7750      0.5789
      0.8000      0.3256
      0.8250      0.0861
      0.8500     -0.1199
      0.8750     -0.3076
      0.9000     -0.4785
      0.9250     -0.6341
      0.9500     -0.7821
      0.9750     -0.8981
      1.0000     -1.0034
      1.0250     -1.1041
      1.0500     -1.1865
      1.0750     -1.2628
      1.1000     -1.3437
      1.1250     -1.4123
      1.1500     -1.4734
      1.1750     -1.5359
      1.2000     -1.5939
      1.2250     -1.6427
      1.2500     -1.6839
      1.2750     -1.7236
      1.3000     -1.7495
      1.3250     -1.7770
      1.3500     -1.8075
      1.3750     -1.8228
      1.4000     -1.8518
      1.4250     -1.8686
      1.4500     -1.8838
      1.4750     -1.9067
      1.5000     -1.9220
      1.5250     -1.9265
      1.5500     -1.9372
      1.5750     -1.9479
      1.6000     -1.9632
      1.6250     -1.9632
      1.6500     -1.9616
      1.6750     -1.9571
      1.7000     -1.9510
      1.7250     -1.9479
      1.7500     -1.9464
      1.7750     -1.9433
      1.8000     -1.9433
      1.8250     -1.9342
      1.8500     -1.9296
      1.8750     -1.9189
      1.9000     -1.9052
      1.9250     -1.9082
      1.9500     -1.8991
      1.9750     -1.8945
      2.0000     -1.8930
      2.0250     -1.8899
      2.0500     -1.8884
      2.0750     -1.8762
      2.1000     -1.8655
      2.1250     -1.8533
      2.1500     -1.8472
      2.1750     -1.8380
      2.2000     -1.8243
      2.2250     -1.8167
      2.2500     -1.8060
      2.2750     -1.7999
      2.3000     -1.7831
      2.3250     -1.7740
      2.3500     -1.7633
      2.3750     -1.7557
      2.4000     -1.7511
      2.4250     -1.7450
      2.4500     -1.7419
      2.4750     -1.7404
      2.5000     -1.7267
      2.5250     -1.7221
      2.5500     -1.7129
      2.5750     -1.6992
      2.6000     -1.6885
      2.6250     -1.6794
      2.6500     -1.6702
      2.6750     -1.6641
      2.7000     -1.6565
      2.7250     -1.6443
      2.7500     -1.6290
      2.7750     -1.6229
      2.8000     -1.6076
      2.8250     -1.6061
      2.8500     -1.6046
      2.8750     -1.5939
      2.9000     -1.5863
      2.9250     -1.5817
      2.9500     -1.5771
      2.9750     -1.5741
      3.0000     -1.5634
      3.0250     -1.5558
      3.0500     -1.5481
      3.0750     -1.5375
      3.1000     -1.5298
      3.1250     -1.5222
      3.1500     -1.5146
      3.1750     -1.4993
      3.2000     -1.4825
      3.2250     -1.4688
      3.2500     -1.4505
      3.2750     -1.4459
      3.3000     -1.4413
      3.3250     -1.4352
      3.3500     -1.4276
      3.3750     -1.4154
      3.4000     -1.4047
      3.4250     -1.4001
      3.4500     -1.4016
      3.4750     -1.3940
      3.5000     -1.3864
      3.5250     -1.3742
      3.5500     -1.3559
      3.5750     -1.3391
      3.6000     -1.3299
      3.6250     -1.3192
