     time/ms     Ampl/pA
     -1.3000      0.0008
     -1.2750     -0.0008
     -1.2500     -0.0038
     -1.2250     -0.0023
     -1.2000     -0.0069
     -1.1750      0.0038
     -1.1500      0.0069
     -1.1250      0.0084
     -1.1000      0.0099
     -1.0750      0.0053
     -1.0500      0.0954
     -1.0250      0.3441
     -1.0000      0.6783
     -0.9750      1.0262
     -0.9500      1.3588
     -0.9250      1.6624
     -0.9000      1.9524
     -0.8750      2.2301
     -0.8500      2.4986
     -0.8250      2.7672
     -0.8000      3.0220
     -0.7750      3.2692
     -0.7500      3.5133
     -0.7250      3.7498
     -0.7000      3.9879
     -0.6750      4.2229
     -0.6500      4.4533
     -0.6250      4.6761
     -0.6000      4.9004
     -0.5750      5.1384
     -0.5500      5.3719
     -0.5250      5.5992
     -0.5000      5.8342
     -0.4750      6.0707
     -0.4500      6.3072
     -0.4250      6.5529
     -0.4000      6.7970
     -0.3750      7.0625
     -0.3500      7.3387
     -0.3250      7.6561
     -0.3000      8.0070
     -0.2750      8.4175
     -0.2500      8.9088
     -0.2250      9.5299
     -0.2000     10.4256
     -0.1750     11.9194
     -0.1500     14.5973
     -0.1250     18.5143
     -0.1000     22.6387
     -0.0750     25.8232
     -0.0500     27.6817
     -0.0250     28.4889
      0.0000     28.6613
      0.0250     28.4599
      0.0500     28.0037
      0.0750     27.3537
      0.1000     26.5404
      0.1250     25.6004
      0.1500     24.5766
      0.1750     23.5039
      0.2000     22.4312
      0.2250     21.3783
      0.2500     20.3667
      0.2750     19.3840
      0.3000     18.4319
      0.3250     17.5270
      0.3500     16.6313
      0.3750     15.7356
      0.4000     14.8521
      0.4250     13.9687
      0.4500     13.0730
      0.4750     12.1681
      0.5000     11.2434
      0.5250     10.3111
      0.5500      9.4154
      0.5750      8.5381
      0.6000      7.7095
      0.6250      6.9130
      0.6500      6.1623
      0.6750      5.4634
      0.7000      4.8225
      0.7250      4.2336
      0.7500      3.6980
      0.7750      3.2188
      0.8000      2.7870
      0.8250      2.4025
      0.8500      2.0531
      0.8750      1.7326
      0.9000      1.4458
      0.9250      1.1894
      0.9500      0.9514
      0.9750      0.7378
      1.0000      0.5440
      1.0250      0.3654
      1.0500      0.2022
      1.0750      0.0587
      1.1000     -0.0755
      1.1250     -0.1976
      1.1500     -0.3044
      1.1750     -0.4036
      1.2000     -0.4997
      1.2250     -0.5882
      1.2500     -0.6615
      1.2750     -0.7271
      1.3000     -0.7805
      1.3250     -0.8385
      1.3500     -0.8827
      1.3750     -0.9163
      1.4000     -0.9468
      1.4250     -0.9804
      1.4500     -1.0063
      1.4750     -1.0429
      1.5000     -1.0765
      1.5250     -1.0979
      1.5500     -1.1238
      1.5750     -1.1436
      1.6000     -1.1635
      1.6250     -1.1742
      1.6500     -1.1864
      1.6750     -1.1955
      1.7000     -1.2062
      1.7250     -1.2199
      1.7500     -1.2337
      1.7750     -1.2474
      1.8000     -1.2581
      1.8250     -1.2520
      1.8500     -1.2520
      1.8750     -1.2505
      1.9000     -1.2505
      1.9250     -1.2550
      1.9500     -1.2520
      1.9750     -1.2444
      2.0000     -1.2489
      2.0250     -1.2489
      2.0500     -1.2459
      2.0750     -1.2489
      2.1000     -1.2444
      2.1250     -1.2459
      2.1500     -1.2428
      2.1750     -1.2459
      2.2000     -1.2367
      2.2250     -1.2291
      2.2500     -1.2291
      2.2750     -1.2276
      2.3000     -1.2337
      2.3250     -1.2337
      2.3500     -1.2291
      2.3750     -1.2230
      2.4000     -1.2138
      2.4250     -1.2032
      2.4500     -1.1940
      2.4750     -1.1864
      2.5000     -1.1742
      2.5250     -1.1620
      2.5500     -1.1528
      2.5750     -1.1467
      2.6000     -1.1406
      2.6250     -1.1391
      2.6500     -1.1345
      2.6750     -1.1345
      2.7000     -1.1330
      2.7250     -1.1253
      2.7500     -1.1238
      2.7750     -1.1177
      2.8000     -1.1131
      2.8250     -1.1070
      2.8500     -1.1024
      2.8750     -1.0963
      2.9000     -1.0963
      2.9250     -1.0811
      2.9500     -1.0704
      2.9750     -1.0674
      3.0000     -1.0597
      3.0250     -1.0551
      3.0500     -1.0445
      3.0750     -1.0384
      3.1000     -1.0338
      3.1250     -1.0277
      3.1500     -1.0124
      3.1750     -1.0048
      3.2000     -0.9895
      3.2250     -0.9819
      3.2500     -0.9697
      3.2750     -0.9651
      3.3000     -0.9651
      3.3250     -0.9621
      3.3500     -0.9636
      3.3750     -0.9544
      3.4000     -0.9514
      3.4250     -0.9499
      3.4500     -0.9407
      3.4750     -0.9346
      3.5000     -0.9300
      3.5250     -0.9163
      3.5500     -0.9071
      3.5750     -0.9026
      3.6000     -0.8949
      3.6250     -0.8827
      3.6500     -0.8705
      3.6750     -0.8690
