     time/ms     Ampl/pA
     -1.3000     -0.0117
     -1.2000     -0.0163
     -1.1000     -0.0102
     -1.0000      0.7619
     -0.9000      2.0238
     -0.8000      3.0675
     -0.7000      4.0410
     -0.6000      4.9535
     -0.5000      5.8568
     -0.4000      6.8059
     -0.3000      7.9061
     -0.2000      9.6288
     -0.1000     18.8253
      0.0000     28.8030
      0.1000     24.6755
      0.2000     16.7226
      0.3000      9.9309
      0.4000      4.6193
      0.5000      1.4028
      0.6000     -0.3352
      0.7000     -1.2690
      0.8000     -1.8199
      0.9000     -2.1434
      1.0000     -2.3371
      1.1000     -2.4485
      1.2000     -2.5096
      1.3000     -2.5477
      1.4000     -2.5599
      1.5000     -2.5340
      1.6000     -2.5080
      1.7000     -2.4928
      1.8000     -2.4577
      1.9000     -2.4317
      2.0000     -2.3707
      2.1000     -2.3280
      2.2000     -2.2807
      2.3000     -2.2532
      2.4000     -2.2013
      2.5000     -2.1662
      2.6000     -2.1342
      2.7000     -2.0808
      2.8000     -2.0426
      2.9000     -1.9969
      3.0000     -1.9633
      3.1000     -1.9053
      3.2000     -1.8717
      3.3000     -1.8092
      3.4000     -1.7649
      3.5000     -1.7207
      3.6000     -1.6871
