     time/ms     Ampl/pA
     -1.3250     -0.0071
     -1.3000     -0.0117
     -1.2750     -0.0102
     -1.2500     -0.0178
     -1.2250     -0.0132
     -1.2000     -0.0163
     -1.1750     -0.0148
     -1.1500     -0.0117
     -1.1250     -0.0102
     -1.1000     -0.0102
     -1.0750     -0.0010
     -1.0500      0.1241
     -1.0250      0.3988
     -1.0000      0.7619
     -0.9750      1.1159
     -0.9500      1.4440
     -0.9250      1.7431
     -0.9000      2.0238
     -0.8750      2.2970
     -0.8500      2.5640
     -0.8250      2.8188
     -0.8000      3.0675
     -0.7750      3.3132
     -0.7500      3.5650
     -0.7250      3.8106
     -0.7000      4.0410
     -0.6750      4.2837
     -0.6500      4.5064
     -0.6250      4.7307
     -0.6000      4.9535
     -0.5750      5.1702
     -0.5500      5.3991
     -0.5250      5.6325
     -0.5000      5.8568
     -0.4750      6.0949
     -0.4500      6.3238
     -0.4250      6.5603
     -0.4000      6.8059
     -0.3750      7.0638
     -0.3500      7.3354
     -0.3250      7.6116
     -0.3000      7.9061
     -0.2750      8.2296
     -0.2500      8.6034
     -0.2250      9.0505
     -0.2000      9.6288
     -0.1750     10.4741
     -0.1500     11.9344
     -0.1250     14.6886
     -0.1000     18.8253
     -0.0750     23.1405
     -0.0500     26.3692
     -0.0250     28.1713
      0.0000     28.8030
      0.0250     28.6016
      0.0500     27.7639
      0.0750     26.4257
      0.1000     24.6755
      0.1250     22.6949
      0.1500     20.6426
      0.1750     18.6315
      0.2000     16.7226
      0.2250     14.9221
      0.2500     13.1887
      0.2750     11.5224
      0.3000      9.9309
      0.3250      8.4234
      0.3500      7.0226
      0.3750      5.7576
      0.4000      4.6193
      0.4250      3.6199
      0.4500      2.7700
      0.4750      2.0299
      0.5000      1.4028
      0.5250      0.8611
      0.5500      0.3942
      0.5750      0.0005
      0.6000     -0.3352
      0.6250     -0.6236
      0.6500     -0.8738
      0.6750     -1.0813
      0.7000     -1.2690
      0.7250     -1.4323
      0.7500     -1.5773
      0.7750     -1.7100
      0.8000     -1.8199
      0.8250     -1.9099
      0.8500     -1.9969
      0.8750     -2.0716
      0.9000     -2.1434
      0.9250     -2.2044
      0.9500     -2.2517
      0.9750     -2.2883
      1.0000     -2.3371
      1.0250     -2.3738
      1.0500     -2.4089
      1.0750     -2.4302
      1.1000     -2.4485
      1.1250     -2.4714
      1.1500     -2.4943
      1.1750     -2.5035
      1.2000     -2.5096
      1.2250     -2.5172
      1.2500     -2.5309
      1.2750     -2.5431
      1.3000     -2.5477
      1.3250     -2.5538
      1.3500     -2.5477
      1.3750     -2.5508
      1.4000     -2.5599
      1.4250     -2.5569
      1.4500     -2.5538
      1.4750     -2.5431
      1.5000     -2.5340
      1.5250     -2.5233
      1.5500     -2.5172
      1.5750     -2.5096
      1.6000     -2.5080
      1.6250     -2.5019
      1.6500     -2.4974
      1.6750     -2.4897
      1.7000     -2.4928
      1.7250     -2.4790
      1.7500     -2.4745
      1.7750     -2.4699
      1.8000     -2.4577
      1.8250     -2.4531
      1.8500     -2.4485
      1.8750     -2.4348
      1.9000     -2.4317
      1.9250     -2.4195
      1.9500     -2.4058
      1.9750     -2.3875
      2.0000     -2.3707
      2.0250     -2.3585
      2.0500     -2.3493
      2.0750     -2.3432
      2.1000     -2.3280
      2.1250     -2.3173
      2.1500     -2.3097
      2.1750     -2.2944
      2.2000     -2.2807
      2.2250     -2.2761
      2.2500     -2.2654
      2.2750     -2.2593
      2.3000     -2.2532
      2.3250     -2.2334
      2.3500     -2.2257
      2.3750     -2.2151
      2.4000     -2.2013
      2.4250     -2.1952
      2.4500     -2.1876
      2.4750     -2.1769
      2.5000     -2.1662
      2.5250     -2.1617
      2.5500     -2.1586
      2.5750     -2.1449
      2.6000     -2.1342
      2.6250     -2.1159
      2.6500     -2.1052
      2.6750     -2.0991
      2.7000     -2.0808
      2.7250     -2.0686
      2.7500     -2.0610
      2.7750     -2.0487
      2.8000     -2.0426
      2.8250     -2.0274
      2.8500     -2.0137
      2.8750     -2.0045
      2.9000     -1.9969
      2.9250     -1.9908
      2.9500     -1.9801
      2.9750     -1.9725
      3.0000     -1.9633
      3.0250     -1.9526
      3.0500     -1.9328
      3.0750     -1.9175
      3.1000     -1.9053
      3.1250     -1.8901
      3.1500     -1.8840
      3.1750     -1.8809
      3.2000     -1.8717
      3.2250     -1.8672
      3.2500     -1.8580
      3.2750     -1.8336
      3.3000     -1.8092
      3.3250     -1.7924
      3.3500     -1.7832
      3.3750     -1.7741
      3.4000     -1.7649
      3.4250     -1.7497
      3.4500     -1.7344
      3.4750     -1.7329
      3.5000     -1.7207
      3.5250     -1.7115
      3.5500     -1.7008
      3.5750     -1.6917
      3.6000     -1.6871
      3.6250     -1.6856
      3.6500     -1.6810
